# atmos --saveVMR -z0[0.5]20[1]50 -fxy -o USstandard_500m.XY USstandard_50.xy
#
#what:   z    pressure temperature         air         H2O         CO2          O3         N2O          CO         CH4          O2          NO         SO2         NO2         NH3        HNO3          OH          HF         HCl         HBr          HI         ClO         OCS        H2CO        HOCl          N2         HCN       CH3Cl        H2O2        C2H2        C2H6         PH3         HO2
#units: km          mb           K     1/cm**3         ppm         ppm         ppm         ppm         ppm         ppm         ppm         ppm         ppm         ppm         ppm         ppm         ppm         ppm         ppm         ppm         ppm         ppm         ppm         ppm         ppm         ppm         ppm         ppm         ppm         ppm         ppm         ppm         ppm
     0.000        1013     288.200   2.548e+19    7.74e+03         330      0.0266        0.32        0.15         1.7    2.09e+05      0.0003      0.0003     2.3e-05      0.0005       5e-05     4.4e-08       1e-08       0.001     1.7e-06       3e-06       1e-08      0.0006      0.0024     7.7e-06    7.81e+05     0.00017      0.0007      0.0002      0.0003       0.002       1e-14       4e-05
     0.500     954.193     284.950   2.428e+19    6.91e+03         330       0.028        0.32       0.147         1.7    2.09e+05      0.0003    0.000287     2.3e-05      0.0005    5.48e-05     4.4e-08       1e-08    0.000875     1.7e-06       3e-06       1e-08    0.000595     0.00173    9.15e-06    7.81e+05    0.000167    0.000685    0.000197    0.000236       0.002       1e-14    3.45e-05
     1.000       898.8     281.700   2.313e+19    6.07e+03         330      0.0293        0.32       0.145         1.7    2.09e+05      0.0003    0.000274     2.3e-05      0.0005    5.96e-05     4.4e-08       1e-08    0.000749     1.7e-06       3e-06       1e-08     0.00059     0.00107    1.06e-05    7.81e+05    0.000165     0.00067    0.000195    0.000172       0.002       1e-14     2.9e-05
     1.500     845.308     278.450   2.201e+19    5.35e+03         330      0.0308        0.32       0.142         1.7    2.09e+05      0.0003    0.000255     2.3e-05    0.000481    6.45e-05     4.4e-08    1.12e-08    0.000655     1.7e-06       3e-06       1e-08    0.000585    0.000737    1.14e-05    7.81e+05    0.000164    0.000657    0.000193    0.000134       0.002       1e-14    2.45e-05
     2.000         795     275.200   2.094e+19    4.63e+03         330      0.0324        0.32        0.14         1.7    2.09e+05      0.0003    0.000236     2.3e-05    0.000463    6.93e-05     4.4e-08    1.23e-08    0.000561     1.7e-06       3e-06       1e-08     0.00058    0.000404    1.22e-05    7.81e+05    0.000163    0.000643    0.000192    9.57e-05       0.002       1e-14       2e-05
     2.500     746.628     271.950    1.99e+19    3.91e+03         330      0.0328        0.32       0.138         1.7    2.09e+05      0.0003    0.000213     2.3e-05    0.000421    7.42e-05     4.4e-08     1.6e-08    0.000491     1.7e-06       3e-06       1e-08    0.000575    0.000316    1.18e-05    7.81e+05    0.000162    0.000633    0.000191    8.16e-05       0.002       1e-14    1.75e-05
     3.000       701.2     268.700   1.891e+19    3.18e+03         330      0.0332        0.32       0.135         1.7    2.09e+05      0.0003     0.00019     2.3e-05     0.00038    7.91e-05     4.4e-08    1.97e-08    0.000422     1.7e-06       3e-06       1e-08     0.00057    0.000227    1.14e-05    7.81e+05    0.000161    0.000622    0.000189    6.74e-05       0.002       1e-14     1.5e-05
     3.500     657.541     265.450   1.795e+19    2.67e+03         330      0.0335        0.32       0.133         1.7    2.09e+05      0.0003    0.000168     2.3e-05    0.000334    8.39e-05     4.4e-08    2.57e-08    0.000371     1.7e-06       3e-06       1e-08    0.000566    0.000183    1.06e-05    7.81e+05     0.00016    0.000614    0.000187     5.9e-05     0.00199       1e-14    1.25e-05
     4.000       616.6     262.200   1.704e+19    2.16e+03         330      0.0339        0.32       0.131         1.7    2.09e+05      0.0003    0.000146     2.3e-05    0.000288    8.87e-05     4.4e-08    3.18e-08    0.000319     1.7e-06       3e-06       1e-08    0.000562     0.00014     9.8e-06    7.81e+05     0.00016    0.000607    0.000184    5.07e-05     0.00198       1e-14       1e-05
     4.500     577.297     258.950   1.616e+19    1.78e+03         330      0.0358        0.32       0.131         1.7    2.09e+05      0.0003    0.000132     2.3e-05    0.000246    9.31e-05     4.4e-08    4.41e-08    0.000279     1.7e-06       3e-06       1e-08    0.000558     0.00012    8.91e-06    7.81e+05     0.00016    0.000604     0.00018    4.53e-05     0.00196       1e-14    8.75e-06
     5.000       540.5     255.700   1.532e+19     1.4e+03         330      0.0377        0.32        0.13         1.7    2.09e+05      0.0003    0.000118     2.3e-05    0.000204    9.75e-05     4.4e-08    5.63e-08    0.000239     1.7e-06       3e-06       1e-08    0.000555      0.0001    8.01e-06    7.81e+05     0.00016    0.000602    0.000177    3.99e-05     0.00195       1e-14     7.5e-06
     5.500     505.197     252.450    1.45e+19    1.16e+03         330      0.0394        0.32       0.129         1.7    2.09e+05      0.0003    0.000108     2.3e-05    0.000175    0.000104     4.4e-08    7.41e-08    0.000209     1.7e-06       3e-06       1e-08    0.000552    8.72e-05    7.21e-06    7.81e+05     0.00016    0.000601    0.000171    3.59e-05     0.00192       1e-14    5.95e-06
     6.000       472.2     249.200   1.373e+19         925         330      0.0411        0.32       0.129         1.7    2.09e+05      0.0003    9.71e-05     2.3e-05    0.000146    0.000111     4.4e-08    9.18e-08    0.000179     1.7e-06       3e-06       1e-08    0.000548    7.44e-05    6.42e-06    7.81e+05     0.00016      0.0006    0.000166    3.19e-05      0.0019       1e-14     4.4e-06
     6.500     440.592     245.950   1.298e+19         748         330      0.0456        0.32       0.127         1.7    2.09e+05      0.0003       9e-05     2.3e-05    0.000122    0.000119    4.41e-08    1.22e-07    0.000155     1.7e-06       3e-06       1e-08    0.000544    6.74e-05    5.92e-06    7.81e+05     0.00016      0.0006    0.000157       3e-05     0.00187       1e-14     3.5e-06
     7.000       411.1     242.700   1.228e+19         572         330      0.0501        0.32       0.125         1.7    2.09e+05      0.0003     8.3e-05     2.3e-05    9.88e-05    0.000126    4.41e-08    1.53e-07    0.000132     1.7e-06       3e-06       1e-08     0.00054    6.04e-05    5.42e-06    7.81e+05     0.00016      0.0006    0.000149     2.8e-05     0.00185       1e-14     2.6e-06
     7.500     382.828     239.450   1.159e+19         469         330      0.0549        0.32       0.122         1.7    2.09e+05      0.0003    7.75e-05     2.3e-05    8.18e-05    0.000132    4.43e-08    1.97e-07    0.000116     1.7e-06       3e-06    1.01e-08    0.000536    5.52e-05    5.06e-06    7.81e+05     0.00016    0.000599    0.000136    2.67e-05     0.00182       1e-14     2.1e-06
     8.000       356.5     236.200   1.094e+19         367         330      0.0597        0.32       0.119         1.7    2.09e+05      0.0003    7.21e-05     2.3e-05    6.48e-05    0.000139    4.45e-08    2.41e-07    9.96e-05     1.7e-06       3e-06    1.01e-08    0.000532    5.01e-05     4.7e-06    7.81e+05     0.00016    0.000598    0.000123    2.55e-05     0.00179       1e-14     1.6e-06
     8.500     331.364     232.950   1.031e+19         262         330      0.0757       0.319       0.114        1.69    2.09e+05      0.0003    6.88e-05    2.31e-05    5.12e-05    0.000146     4.5e-08    3.22e-07    8.72e-05     1.7e-06       3e-06    1.03e-08    0.000528    4.62e-05    4.55e-06    7.81e+05     0.00016    0.000596    0.000107    2.47e-05     0.00176       1e-14    1.21e-06
     9.000         308     229.700   9.719e+18         158         330      0.0917       0.319       0.109        1.69    2.09e+05      0.0003    6.56e-05    2.32e-05    3.77e-05    0.000153    4.56e-08    4.04e-07    7.48e-05     1.7e-06       3e-06    1.05e-08    0.000525    4.22e-05    4.41e-06    7.81e+05     0.00016    0.000594    9.09e-05     2.4e-05     0.00172       1e-14     8.2e-07
     9.500     285.692     226.500   9.143e+18         114         330       0.111       0.319       0.104        1.69    2.09e+05      0.0003    6.32e-05    2.35e-05     2.9e-05    0.000163    4.62e-08     5.3e-07    6.58e-05     1.7e-06       3e-06    1.13e-08    0.000522    3.93e-05    4.37e-06    7.81e+05     0.00016    0.000591    7.44e-05    2.33e-05     0.00165       1e-14     6.8e-07
    10.000         265     223.300   8.602e+18          70         330       0.131       0.318      0.0996        1.68    2.09e+05      0.0003    6.08e-05    2.38e-05    2.03e-05    0.000174    4.68e-08    6.57e-07    5.68e-05     1.7e-06       3e-06    1.21e-08    0.000518    3.63e-05    4.34e-06    7.81e+05     0.00016    0.000588    5.79e-05    2.27e-05     0.00158       1e-14     5.4e-07
    10.500     245.265     220.050    8.08e+18          53         330       0.173       0.316      0.0946        1.67    2.09e+05      0.0003    5.93e-05     2.5e-05    1.56e-05    0.000188    4.74e-08    9.28e-07    5.13e-05     1.7e-06       3e-06    1.54e-08    0.000514    3.53e-05     4.5e-06    7.81e+05     0.00016    0.000583    4.61e-05    2.18e-05     0.00144       1e-14    4.85e-07
    11.000         227     216.800   7.589e+18        36.1         330       0.215       0.314      0.0896        1.67    2.09e+05      0.0003    5.79e-05    2.62e-05    1.09e-05    0.000202     4.8e-08     1.2e-06    4.59e-05     1.7e-06       3e-06    1.87e-08    0.000509    3.43e-05    4.65e-06    7.81e+05     0.00016    0.000579    3.43e-05    2.08e-05      0.0013       1e-14     4.3e-07
    11.500     209.852     216.750   7.017e+18        27.6         330       0.263       0.312      0.0839        1.67    2.09e+05      0.0003     5.7e-05    2.88e-05     8.6e-06    0.000222    4.87e-08    1.58e-06    4.47e-05     1.7e-06       3e-06    2.52e-08    0.000504    3.41e-05    4.83e-06    7.81e+05     0.00016    0.000572    2.69e-05    1.92e-05     0.00114       1e-14    3.85e-07
    12.000         194     216.700   6.489e+18        19.1         330        0.31        0.31      0.0781        1.66    2.09e+05      0.0003     5.6e-05    3.15e-05     6.3e-06    0.000241    4.94e-08    1.96e-06    4.36e-05     1.7e-06       3e-06    3.18e-08    0.000498    3.39e-05    5.01e-06    7.81e+05     0.00016    0.000566    1.95e-05    1.76e-05    0.000986       1e-14     3.4e-07
    12.500     179.347     216.700   5.999e+18          15         330       0.348       0.307      0.0709        1.65    2.09e+05    0.000299    5.59e-05     3.8e-05    4.71e-06    0.000258    5.06e-08    2.54e-06    5.43e-05     1.7e-06       3e-06    4.39e-08     0.00049    3.44e-05    5.12e-06    7.81e+05     0.00016    0.000557    1.51e-05    1.49e-05    0.000854       1e-14    3.05e-07
    13.000       165.8     216.700   5.546e+18        10.9         330       0.385       0.305      0.0637        1.64    2.09e+05    0.000299    5.59e-05    4.45e-05    3.12e-06    0.000276    5.19e-08    3.12e-06    6.51e-05     1.7e-06       3e-06    5.61e-08    0.000482     3.5e-05    5.22e-06    7.81e+05    0.000159    0.000548    1.08e-05    1.23e-05    0.000722       1e-14     2.7e-07
    13.500     153.277     216.700   5.127e+18        8.41         330       0.444       0.302       0.057        1.63    2.09e+05    0.000297    5.61e-05    5.96e-05    2.12e-06    0.000304    5.42e-08    3.87e-06     8.3e-05     1.7e-06       3e-06     7.8e-08    0.000471    3.56e-05    5.41e-06    7.81e+05    0.000158    0.000538     8.7e-06    9.81e-06    0.000609       1e-14     2.4e-07
    14.000       141.7     216.700   4.739e+18        5.93         330       0.503         0.3      0.0503        1.63    2.09e+05    0.000295    5.64e-05    7.48e-05    1.11e-06    0.000333    5.65e-08    4.62e-06    0.000101     1.7e-06       3e-06    9.99e-08     0.00046    3.62e-05     5.6e-06    7.81e+05    0.000157    0.000528    6.59e-06    7.32e-06    0.000496       1e-14     2.1e-07
    14.500     130.996     216.700   4.381e+18        5.46         330       0.577       0.297      0.0448        1.62    2.09e+05    0.000289     5.7e-05    0.000123    7.79e-07    0.000392     6.2e-08    5.85e-06    0.000132     1.7e-06       3e-06    1.39e-07    0.000443    3.62e-05    6.23e-06    7.81e+05    0.000156    0.000516    5.39e-06    5.92e-06    0.000416       1e-14     1.9e-07
    15.000       121.1     216.700    4.05e+18           5         330        0.65       0.294      0.0394        1.61    2.09e+05    0.000283    5.75e-05    0.000171    4.47e-07    0.000452    6.75e-08    7.09e-06    0.000163     1.7e-06       3e-06    1.78e-07    0.000426    3.62e-05    6.86e-06    7.81e+05    0.000155    0.000503     4.2e-06    4.52e-06    0.000335       1e-14     1.7e-07
    15.500     111.955     216.700   3.744e+18        4.47         330        0.76       0.291       0.035         1.6    2.09e+05    0.000276    5.75e-05    0.000245    3.29e-07    0.000594     7.5e-08    8.79e-06      0.0002     1.7e-06       3e-06    2.47e-07    0.000407     3.6e-05    7.82e-06    7.81e+05    0.000153     0.00049    3.57e-06    3.55e-06    0.000275       1e-14    2.05e-07
    16.000       103.5     216.700   3.462e+18        3.95         330        0.87       0.288      0.0307        1.58    2.09e+05    0.000268    5.75e-05    0.000319    2.11e-07    0.000737    8.25e-08    1.05e-05    0.000237     1.7e-06       3e-06    3.16e-07    0.000388    3.58e-05    8.77e-06    7.81e+05    0.000152    0.000477    2.94e-06    2.59e-06    0.000214       1e-14     2.4e-07
    16.500     95.7066     216.700   3.201e+18         3.9         330        1.03       0.283      0.0278        1.56    2.09e+05     0.00026    5.56e-05    0.000419     1.6e-07     0.00102    9.33e-08    1.37e-05    0.000275     1.7e-06       3e-06     4.4e-07    0.000368    3.54e-05    1.04e-05    7.81e+05     0.00015    0.000463    2.62e-06    2.07e-06    0.000181       1e-14     2.9e-07
    17.000        88.5     216.700    2.96e+18        3.85         330        1.19       0.278      0.0249        1.55    2.09e+05    0.000252    5.37e-05    0.000519     1.1e-07     0.00131    1.04e-07    1.69e-05    0.000313     1.7e-06       3e-06    5.65e-07    0.000348     3.5e-05     1.2e-05    7.81e+05    0.000149    0.000449     2.3e-06    1.55e-06    0.000149       1e-14     3.4e-07
    17.500     81.8231     216.700   2.737e+18        3.84         330        1.39       0.272      0.0223        1.54    2.09e+05    0.000246    5.08e-05    0.000645    8.85e-08     0.00171    1.17e-07    2.13e-05    0.000349     1.7e-06       3e-06    8.02e-07    0.000329    3.46e-05    1.42e-05    7.81e+05    0.000147    0.000435    2.27e-06    1.21e-06    0.000127       1e-14     4.1e-07
    18.000       75.65     216.700    2.53e+18        3.83         330        1.59       0.267      0.0197        1.52    2.09e+05     0.00024    4.78e-05    0.000771     6.7e-08     0.00211     1.3e-07    2.57e-05    0.000385     1.7e-06       3e-06    1.04e-06    0.000309    3.42e-05    1.63e-05    7.81e+05    0.000145    0.000421    2.24e-06    8.63e-07    0.000105       1e-14     4.8e-07
    18.500     69.9449     216.700   2.339e+18        3.84         330        1.81        0.26      0.0176         1.5    2.09e+05    0.000242    4.37e-05    0.000915    5.33e-08     0.00264    1.47e-07    3.29e-05    0.000414     1.7e-06       3e-06    1.54e-06    0.000291    3.41e-05    1.94e-05    7.81e+05    0.000143    0.000408    2.46e-06    6.96e-07    9.23e-05       1e-14     5.8e-07
    19.000       64.67     216.700   2.163e+18        3.85         330        2.03       0.253      0.0155        1.48    2.09e+05    0.000244    3.97e-05     0.00106    3.97e-08     0.00317    1.64e-07    4.02e-05    0.000442     1.7e-06       3e-06    2.04e-06    0.000274    3.39e-05    2.26e-05    7.81e+05    0.000141    0.000395    2.68e-06     5.3e-07    7.96e-05       1e-14     6.8e-07
    19.500     59.7964     216.700       2e+18        3.88         330         2.3       0.244      0.0144        1.45    2.09e+05    0.000249    3.58e-05     0.00122    3.19e-08     0.00368     1.9e-07    4.89e-05    0.000465     1.7e-06       3e-06    3.34e-06    0.000257    3.41e-05    2.67e-05    7.81e+05    0.000139    0.000382    3.18e-06     4.2e-07    6.98e-05       1e-14     8.2e-07
    20.000       55.29     216.700   1.849e+18         3.9         330        2.58       0.236      0.0133        1.42    2.09e+05    0.000255    3.19e-05     0.00139    2.41e-08      0.0042    2.16e-07    5.77e-05    0.000489     1.7e-06       3e-06    4.64e-06    0.000241    3.43e-05    3.07e-05    7.81e+05    0.000137    0.000369    3.68e-06     3.1e-07    6.01e-05       1e-14     9.6e-07
    21.000       47.29     217.600   1.575e+18        3.97         330        3.03       0.219      0.0123        1.36    2.09e+05    0.000277    2.67e-05     0.00176    1.92e-08     0.00494     3.4e-07    7.77e-05    0.000522     1.7e-06       3e-06    8.15e-06    0.000214    3.68e-05    4.29e-05    7.81e+05    0.000134    0.000343    5.62e-06    1.89e-07    4.57e-05       1e-14     1.4e-06
    22.000       40.47     218.600   1.342e+18        4.07         330        3.65       0.205      0.0123        1.27    2.09e+05    0.000307    2.28e-05     0.00216    1.72e-08     0.00546    5.09e-07     9.9e-05    0.000549     1.7e-06       3e-06    1.07e-05    0.000188    4.03e-05    5.76e-05    7.81e+05     0.00013    0.000317    1.03e-05    1.04e-07     3.4e-05       1e-14     2.1e-06
    23.000       34.67     219.600   1.144e+18         4.2         330        4.17       0.197      0.0131        1.19    2.09e+05     0.00036    2.07e-05     0.00258    1.59e-08     0.00574    7.59e-07    0.000123    0.000575     1.7e-06       3e-06    1.52e-05    0.000164     4.5e-05    7.65e-05    7.81e+05    0.000125    0.000286    1.97e-05    5.75e-08     2.6e-05       1e-14     3.1e-06
    24.000       29.72     220.600   9.765e+17         4.3         330        4.63       0.188       0.014        1.12    2.09e+05    0.000451     1.9e-05     0.00306    1.44e-08     0.00584    1.16e-06     0.00015    0.000604     1.7e-06       3e-06    2.24e-05    0.000137    5.06e-05    9.92e-05    7.81e+05    0.000119    0.000248     3.7e-05    2.23e-08    1.89e-05       1e-14     4.5e-06
    25.000       25.49     221.600   8.337e+17        4.43         330        5.12       0.176       0.015        1.05    2.09e+05    0.000685    1.75e-05     0.00374    1.23e-08     0.00561    2.18e-06    0.000182    0.000651    1.71e-06       3e-06    3.97e-05    0.000108    5.82e-05    0.000131    7.81e+05    0.000113    0.000191     6.2e-05    8.51e-09    1.22e-05       1e-14     6.7e-06
    26.000     21.8948     222.560    7.13e+17        4.49         330        5.39       0.169      0.0154        1.02    2.09e+05    0.000923    1.67e-05     0.00417    1.11e-08     0.00529    3.31e-06    0.000201    0.000691    1.73e-06       3e-06    5.77e-05    9.16e-05    6.38e-05    0.000152    7.81e+05     0.00011    0.000159    7.84e-05    6.74e-09    9.62e-06       1e-14    9.62e-06
    27.000     18.8067     223.520   6.099e+17        4.54         330        5.66       0.162      0.0158           1    2.09e+05     0.00116    1.58e-05      0.0046    9.96e-09     0.00498    4.44e-06     0.00022    0.000731    1.75e-06       3e-06    7.58e-05    7.52e-05    6.93e-05    0.000173    7.81e+05    0.000107    0.000126    9.48e-05    4.97e-09    7.03e-06       1e-14    1.25e-05
    28.000      16.168     224.500    5.22e+17         4.6         330        5.95       0.156      0.0162       0.972    2.09e+05     0.00151     1.5e-05     0.00508    8.77e-09      0.0046    6.34e-06    0.000241    0.000798    1.79e-06       3e-06    0.000105    5.95e-05    7.51e-05    0.000196    7.81e+05    0.000103    9.74e-05     0.00011    3.78e-09    5.02e-06       1e-14     1.7e-05
    29.000     13.9115     225.500   4.471e+17        4.66         330        6.25       0.149      0.0167       0.943    2.09e+05     0.00198    1.42e-05     0.00562    7.56e-09     0.00417    9.02e-06    0.000262    0.000893    1.84e-06       3e-06    0.000145    4.46e-05    8.12e-05    0.000221    7.81e+05      0.0001    7.23e-05    0.000123    3.15e-09    3.58e-06       1e-14     2.3e-05
    30.000       11.97     226.500    3.83e+17        4.72         330        6.55       0.142      0.0171       0.914    2.09e+05     0.00245    1.34e-05     0.00616    6.35e-09     0.00374    1.17e-05    0.000283    0.000988     1.9e-06       3e-06    0.000185    2.96e-05    8.73e-05    0.000245    7.81e+05    9.73e-05    4.72e-05    0.000136    2.52e-09    2.14e-06       1e-14     2.9e-05
    31.000     10.1932     227.900   3.242e+17        4.76         330        6.88       0.132      0.0177        0.88    2.09e+05     0.00328    1.29e-05     0.00658    5.28e-09     0.00328    2.06e-05    0.000298      0.0011    2.04e-06       3e-06    0.000254    2.26e-05    9.28e-05    0.000265    7.81e+05    9.45e-05    3.55e-05    0.000136    2.26e-09    1.62e-06       1e-14     3.5e-05
    32.000      8.6801     229.300   2.744e+17         4.8         330        7.21       0.121      0.0182       0.847    2.09e+05     0.00411    1.24e-05       0.007    4.21e-09     0.00282    2.95e-05    0.000313     0.00122    2.19e-06       3e-06    0.000323    1.56e-05    9.83e-05    0.000286    7.81e+05    9.18e-05    2.38e-05    0.000136    1.99e-09    1.11e-06       1e-14     4.1e-05
    33.000     7.49513     231.300   2.349e+17        4.84         330        7.46       0.111      0.0188       0.813    2.09e+05     0.00505     1.2e-05     0.00722    3.31e-09      0.0024    4.39e-05    0.000326     0.00134    2.37e-06       3e-06    0.000387    1.05e-05    0.000103    0.000301    7.81e+05    8.92e-05    1.58e-05    0.000131    1.79e-09    7.48e-07       1e-14    4.88e-05
    34.000     6.56255     233.900   2.034e+17        4.87         330        7.65       0.102      0.0195        0.78    2.09e+05      0.0061    1.18e-05     0.00725    2.56e-09     0.00202    6.37e-05    0.000337     0.00145     2.6e-06       3e-06    0.000448    7.43e-06    0.000107    0.000311    7.81e+05    8.69e-05    1.16e-05    0.000122    1.66e-09    5.45e-07       1e-14    5.84e-05
    35.000       5.746     236.500   1.761e+17         4.9         330        7.84      0.0927      0.0201       0.746    2.09e+05     0.00714    1.16e-05     0.00728    1.82e-09     0.00164    8.35e-05    0.000348     0.00157    2.82e-06       3e-06    0.000508    4.31e-06    0.000111    0.000321    7.81e+05    8.46e-05    7.35e-06    0.000113    1.52e-09    3.42e-07       1e-14     6.8e-05
    36.000     5.04474     239.060   1.529e+17        4.92         330        7.82      0.0824      0.0209       0.712    2.09e+05     0.00802    1.18e-05     0.00687    1.46e-09     0.00137    0.000118    0.000358     0.00162    3.17e-06       3e-06    0.000548    3.23e-06    0.000112    0.000314    7.81e+05    8.28e-05    5.62e-06    0.000102    1.44e-09    2.59e-07       1e-14    7.36e-05
    37.000     4.42906     241.620   1.328e+17        4.94         330        7.81      0.0721      0.0218       0.679    2.09e+05      0.0089     1.2e-05     0.00646     1.1e-09      0.0011    0.000153    0.000367     0.00167    3.52e-06       3e-06    0.000587    2.14e-06    0.000113    0.000307    7.81e+05    8.11e-05    3.89e-06    9.07e-05    1.36e-09    1.76e-07       1e-14    7.92e-05
    38.000     3.85518     244.400   1.143e+17        4.97         330         7.7      0.0626      0.0228       0.642    2.09e+05     0.00971    1.24e-05     0.00581       8e-10    0.000881    0.000193    0.000377      0.0017    3.93e-06       3e-06    0.000605    1.41e-06    0.000111    0.000293    7.81e+05    7.94e-05    2.69e-06    8.08e-05    1.29e-09    1.18e-07       1e-14    8.52e-05
    39.000      3.3269     247.400   9.747e+16           5         330         7.5      0.0538      0.0239       0.603    2.09e+05      0.0105     1.3e-05     0.00492    5.47e-10    0.000707    0.000239    0.000386     0.00172    4.42e-06       3e-06      0.0006    1.04e-06    0.000107     0.00027    7.81e+05    7.79e-05       2e-06    7.23e-05    1.24e-09    8.59e-08       1e-14    9.16e-05
    40.000       2.871     250.400    8.31e+16        5.03         330         7.3      0.0451       0.025       0.564    2.09e+05      0.0112    1.36e-05     0.00403    2.94e-10    0.000533    0.000285    0.000395     0.00174    4.91e-06       3e-06    0.000595    6.71e-07    0.000103    0.000248    7.81e+05    7.63e-05    1.32e-06    6.37e-05    1.18e-09    5.39e-08       1e-14     9.8e-05
    41.000     2.51401     253.160   7.198e+16        5.08         330        6.86      0.0381      0.0263       0.523    2.09e+05      0.0115    1.48e-05     0.00329    2.11e-10    0.000421    0.000333    0.000401     0.00175     5.4e-06       3e-06     0.00053    5.77e-07    9.36e-05    0.000214    7.81e+05     7.5e-05    1.14e-06    5.89e-05    1.14e-09    4.13e-08       1e-14    0.000107
    42.000     2.20141     255.920   6.235e+16        5.13         330        6.42       0.031      0.0276       0.482    2.09e+05      0.0118    1.59e-05     0.00254    1.29e-10    0.000308    0.000382    0.000407     0.00176    5.89e-06       3e-06    0.000465    4.82e-07    8.42e-05    0.000181    7.81e+05    7.37e-05    9.59e-07    5.41e-05     1.1e-09    2.88e-08       1e-14    0.000116
    43.000     1.93103     258.680   5.411e+16        5.16         330        6.01      0.0252      0.0291       0.441    2.09e+05      0.0119    1.74e-05     0.00197    7.57e-11    0.000226    0.000427    0.000412     0.00177    6.27e-06       3e-06    0.000397    4.15e-07    7.32e-05    0.000151    7.81e+05    7.24e-05    8.29e-07    5.02e-05    1.06e-09    2.01e-08       1e-14    0.000126
    44.000     1.69681     261.440   4.704e+16        5.19         330        5.63      0.0205      0.0307       0.402    2.09e+05      0.0118    1.92e-05     0.00156    5.28e-11    0.000173    0.000469    0.000417     0.00178    6.56e-06       3e-06    0.000324    3.74e-07    6.07e-05    0.000124    7.81e+05    7.12e-05    7.48e-07    4.73e-05    1.03e-09    1.52e-08       1e-14    0.000138
    45.000       1.491     264.200    4.09e+16        5.22         330        5.25      0.0159      0.0324       0.363    2.09e+05      0.0117     2.1e-05     0.00115    2.98e-11    0.000121    0.000511    0.000421     0.00179    6.85e-06       3e-06    0.000251    3.34e-07    4.82e-05    9.74e-05    7.81e+05       7e-05    6.68e-07    4.44e-05    9.97e-10    1.04e-08       1e-14     0.00015
    46.000      1.3154     266.760   3.574e+16        5.23         330        4.79      0.0133      0.0343       0.329    2.09e+05      0.0114    2.37e-05    0.000956    2.31e-11    0.000103    0.000538    0.000422     0.00179    6.94e-06       3e-06    0.000213    3.12e-07    3.54e-05    7.81e-05    7.81e+05    6.88e-05    6.25e-07    4.18e-05    9.72e-10    8.87e-09       1e-14    0.000158
    47.000     1.16048     269.320   3.124e+16        5.24         330        4.33      0.0107      0.0362       0.294    2.09e+05      0.0111    2.64e-05    0.000763    1.64e-11    8.58e-05    0.000565    0.000423      0.0018    7.03e-06       3e-06    0.000175    2.91e-07    2.27e-05    5.88e-05    7.81e+05    6.76e-05    5.82e-07    3.93e-05    9.47e-10    7.34e-09       1e-14    0.000166
    48.000     1.02405     270.620   2.743e+16        5.24         330         3.9     0.00845      0.0389       0.264    2.09e+05      0.0109    2.93e-05    0.000621    1.18e-11    7.27e-05    0.000598    0.000424      0.0018    7.09e-06       3e-06    0.000146    2.73e-07    1.41e-05    4.44e-05    7.81e+05    6.65e-05    5.47e-07    3.74e-05    9.24e-10     6.2e-09       1e-14    0.000176
    49.000    0.903872     270.660   2.421e+16        5.23         330         3.5      0.0066      0.0425       0.237    2.09e+05      0.0106    3.24e-05    0.000532    9.48e-12    6.41e-05    0.000637    0.000425      0.0018    7.12e-06       3e-06    0.000125     2.6e-07    9.58e-06    3.49e-05    7.81e+05    6.54e-05     5.2e-07    3.61e-05    9.03e-10    5.47e-09       1e-14    0.000188
    50.000      0.7978     270.700   2.136e+16        5.22         330         3.1     0.00475       0.046        0.21    2.09e+05      0.0103    3.56e-05    0.000443    7.13e-12    5.55e-05    0.000675    0.000425      0.0018    7.14e-06       3e-06    0.000104    2.47e-07     5.1e-06    2.53e-05    7.81e+05    6.43e-05    4.94e-07    3.48e-05    8.83e-10    4.74e-09       1e-14      0.0002
